# Step     T (K)     E_KS (eV)    E_tot (eV)   Vol (A^3)    P (kBar)
     1      0.00    -931.46287    -931.46287     500.123     -63.398
     2    494.62    -931.90770    -931.46018     500.123     -63.066
     3   2014.07    -933.27831    -931.45602     500.123     -60.556
     4   4587.94    -935.62479    -931.47369     500.123     -53.743
     5   7826.86    -938.66875    -931.58713     500.123     -38.936
     6   9803.43    -940.74356    -931.87356     500.123      -9.337
     7   8237.19    -939.00417    -931.55129     500.123      31.596
     8   8588.23    -939.20422    -931.43371     500.123      39.664
     9  11374.45    -942.30546    -932.01403     500.123      22.548
    10   9339.49    -940.20547    -931.75524     500.123      27.857
    11   4730.51    -935.66922    -931.38913     500.123      35.758
    12   2768.67    -933.87470    -931.36965     500.123      25.175
    13   3976.52    -935.19236    -931.59447     500.123       2.062
    14   5350.78    -936.43545    -931.59415     500.123     -16.276
    15   6035.40    -936.97874    -931.51800     500.123     -27.673
    16   6822.12    -937.65090    -931.47834     500.123     -33.909
    17   8255.95    -938.96990    -931.50004     500.123     -33.777
    18   9859.08    -940.56047    -931.64013     500.123     -23.310
    19   9561.68    -940.50004    -931.84878     500.123       1.592
    20   6307.94    -937.11455    -931.40722     500.123      31.312
    21   5682.99    -936.59088    -931.44900     500.123      23.745
    22   7408.24    -938.48913    -931.78627     500.123      -7.348
    23   6639.42    -937.56396    -931.55671     500.123     -24.039
    24   5042.58    -936.01722    -931.45477     500.123     -33.970
    25   4297.68    -935.32666    -931.43819     500.123     -39.995
    26   4787.63    -935.76827    -931.43649     500.123     -41.661
    27   6490.57    -937.33513    -931.46256     500.123     -38.314
    28   9043.33    -939.72063    -931.53836     500.123     -26.887
    29  11247.69    -941.87703    -931.70029     500.123      -2.416
    30  11176.17    -941.89324    -931.78121     500.123      36.544
    31   9196.81    -939.75318    -931.43204     500.123      73.380
    32   9250.36    -939.97087    -931.60128     500.123      76.118
    33  10368.42    -941.09067    -931.70949     500.123      57.281
    34  10200.48    -940.86465    -931.63541     500.123      36.687
    35   8868.02    -939.64138    -931.61773     500.123      19.144
    36   6536.66    -937.42318    -931.50891     500.123       8.928
    37   4414.24    -935.44925    -931.45531     500.123       1.369
    38   3335.41    -934.47153    -931.45370     500.123      -5.854
    39   3377.17    -934.52365    -931.46803     500.123     -12.507
    40   4307.35    -935.37700    -931.47977     500.123     -17.416
    41   5896.74    -936.82797    -931.49269     500.123     -18.743
    42   7859.27    -938.64391    -931.53296     500.123     -14.565
    43   9543.18    -940.24184    -931.60732     500.123      -2.192
    44  10114.13    -940.75474    -931.60363     500.123      18.355
    45   9633.88    -940.31470    -931.59811     500.123      40.079
    46   8093.64    -939.00402    -931.68101     500.123      57.423
    47   5700.45    -936.56913    -931.41145     500.123      65.297
    48   5220.93    -936.16573    -931.44191     500.123      48.502
    49   6446.01    -937.46286    -931.63061     500.123      18.418
    50   6937.32    -937.84950    -931.57272     500.123      -4.472
    51   6712.79    -937.58912    -931.51549     500.123     -17.899
    52   6454.04    -937.35564    -931.51612     500.123     -23.252
    53   6218.45    -937.13852    -931.51216     500.123     -21.918
    54   6086.27    -936.97953    -931.47277     500.123     -19.912
    55   6292.42    -937.22222    -931.52893     500.123     -22.972
    56   6356.44    -937.30372    -931.55251     500.123     -26.687
    57   5886.36    -936.86892    -931.54303     500.123     -25.807
    58   4918.19    -935.99406    -931.54415     500.123     -19.928
    59   3849.60    -934.91849    -931.43543     500.123     -13.148
    60   4116.72    -935.14067    -931.41592     500.123     -14.640
    61   5944.33    -936.90273    -931.52439     500.123     -22.320
    62   8057.84    -938.81493    -931.52432     500.123     -25.491
    63   9976.79    -940.58561    -931.55876     500.123     -21.034
    64  11149.16    -941.71395    -931.62636     500.123      -7.400
    65  10927.09    -941.48796    -931.60130     500.123      11.064
    66   9459.28    -940.14922    -931.59061     500.123      24.020
    67   7683.20    -938.39347    -931.44183     500.123      26.264
    68   7359.03    -938.12780    -931.46946     500.123      14.771
    69   8251.15    -939.04761    -931.58208     500.123      -0.897
    70   8709.74    -939.46686    -931.58642     500.123      -8.472
    71   8191.95    -938.99810    -931.58615     500.123      -5.674
    72   6737.24    -937.65970    -931.56395     500.123       5.988
    73   5256.82    -936.18740    -931.43111     500.123      19.141
    74   4966.74    -936.10528    -931.61145     500.123      24.199
    75   4728.66    -935.77004    -931.49162     500.123      24.486
    76   5466.13    -936.46228    -931.51662     500.123      10.519
    77   6840.14    -937.81046    -931.62160     500.123      -9.844
    78   7073.74    -937.94997    -931.54976     500.123     -21.460
    79   6644.44    -937.51902    -931.50723     500.123     -26.714
    80   6169.53    -937.07651    -931.49441     500.123     -27.161
    81   5836.81    -936.78846    -931.50740     500.123     -22.480
    82   5467.54    -936.48264    -931.53569     500.123     -12.466
    83   4781.86    -935.86085    -931.53430     500.123       2.036
    84   4130.01    -935.18419    -931.44741     500.123      15.586
    85   4849.74    -935.78950    -931.40153     500.123      20.442
    86   7414.05    -938.25344    -931.54531     500.123      16.885
    87   9737.37    -940.57520    -931.76497     500.123      16.939
    88   8903.11    -939.86276    -931.80736     500.123      28.702
    89   5938.69    -936.84334    -931.47011     500.123      38.929
    90   5676.19    -936.48722    -931.35148     500.123      26.715
    91   8824.06    -939.84463    -931.86075     500.123      -5.278
    92   9696.89    -940.49133    -931.71773     500.123     -27.417
    93   7603.29    -938.38992    -931.51058     500.123     -39.221
    94   5190.41    -936.14375    -931.44755     500.123     -48.070
    95   3604.94    -934.70101    -931.43931     500.123     -53.484
    96   3062.87    -934.21294    -931.44170     500.123     -55.448
    97   3531.36    -934.64116    -931.44604     500.123     -54.317
    98   4933.98    -935.91789    -931.45370     500.123     -49.746
    99   7120.64    -937.92111    -931.47847     500.123     -40.312
   100   9641.67    -940.27613    -931.55248     500.123     -23.362
